Time_abs/ps, Signal/nA
  1000.000,    -0.126420
  1000.050,    -0.069470
  1000.100,    -0.008046
  1000.150,     0.064275
  1000.200,     0.139661
  1000.250,     0.219095
  1000.300,     0.299788
  1000.350,     0.388336
  1000.400,     0.476504
  1000.450,     0.563926
  1000.500,     0.655049
  1000.550,     0.751175
  1000.600,     0.846352
  1000.650,     0.947155
  1000.700,     1.047633
  1000.750,     1.152442
  1000.800,     1.254328
  1000.850,     1.362673
  1000.900,     1.467689
  1000.950,     1.565727
  1001.000,     1.666129
  1001.050,     1.759955
  1001.100,     1.851386
  1001.150,     1.940722
  1001.200,     2.020884
  1001.250,     2.104288
  1001.300,     2.178756
  1001.350,     2.252753
  1001.400,     2.326071
  1001.450,     2.397680
  1001.500,     2.465732
  1001.550,     2.538154
  1001.600,     2.602322
  1001.650,     2.669694
  1001.700,     2.734790
  1001.750,     2.798284
  1001.800,     2.857538
  1001.850,     2.914085
  1001.900,     2.965527
  1001.950,     3.008039
  1002.000,     3.046140
  1002.050,     3.079927
  1002.100,     3.114335
  1002.150,     3.148464
  1002.200,     3.187384
  1002.250,     3.227562
  1002.300,     3.257538
  1002.350,     3.280182
  1002.400,     3.283508
  1002.450,     3.260823
  1002.500,     3.219519
  1002.550,     3.158993
  1002.600,     3.084689
  1002.650,     3.008479
  1002.700,     2.942906
  1002.750,     2.880346
  1002.800,     2.829048
  1002.850,     2.790747
  1002.900,     2.758529
  1002.950,     2.731989
  1003.000,     2.714931
  1003.050,     2.694659
  1003.100,     2.678586
  1003.150,     2.655778
  1003.200,     2.629496
  1003.250,     2.600267
  1003.300,     2.571618
  1003.350,     2.535634
  1003.400,     2.505585
  1003.450,     2.478528
  1003.500,     2.458585
  1003.550,     2.443245
  1003.600,     2.440041
  1003.650,     2.440851
  1003.700,     2.449972
  1003.750,     2.461924
  1003.800,     2.474430
  1003.850,     2.487523
  1003.900,     2.498481
  1003.950,     2.508878
  1004.000,     2.518296
  1004.050,     2.526330
  1004.100,     2.535089
  1004.150,     2.541510
  1004.200,     2.555066
  1004.250,     2.572373
  1004.300,     2.593071
  1004.350,     2.619817
  1004.400,     2.649983
  1004.450,     2.681914
  1004.500,     2.725662
  1004.550,     2.763032
  1004.600,     2.809359
  1004.650,     2.861273
  1004.700,     2.914056
  1004.750,     2.968414
  1004.800,     3.024444
  1004.850,     3.078739
  1004.900,     3.131719
  1004.950,     3.180601
  1005.000,     3.233199
  1005.050,     3.283118
  1005.100,     3.330039
  1005.150,     3.381775
  1005.200,     3.428975
  1005.250,     3.475488
  1005.300,     3.524386
  1005.350,     3.569012
  1005.400,     3.612162
  1005.450,     3.649007
  1005.500,     3.684994
  1005.550,     3.716372
  1005.600,     3.741910
  1005.650,     3.766573
  1005.700,     3.788553
  1005.750,     3.806413
  1005.800,     3.822714
  1005.850,     3.835824
  1005.900,     3.843717
  1005.950,     3.853415
  1006.000,     3.852090
  1006.050,     3.854276
  1006.100,     3.848560
  1006.150,     3.840866
  1006.200,     3.826493
  1006.250,     3.811851
  1006.300,     3.788038
  1006.350,     3.760979
  1006.400,     3.732778
  1006.450,     3.694192
  1006.500,     3.657136
  1006.550,     3.612214
  1006.600,     3.571287
  1006.650,     3.528673
  1006.700,     3.480768
  1006.750,     3.433326
  1006.800,     3.387927
  1006.850,     3.336173
  1006.900,     3.284960
  1006.950,     3.229980
  1007.000,     3.173679
  1007.050,     3.109496
  1007.100,     3.047805
  1007.150,     2.980659
  1007.200,     2.915260
  1007.250,     2.850910
  1007.300,     2.783486
  1007.350,     2.725763
  1007.400,     2.668076
  1007.450,     2.615712
  1007.500,     2.569373
  1007.550,     2.526429
  1007.600,     2.488174
  1007.650,     2.455082
  1007.700,     2.423570
  1007.750,     2.392345
  1007.800,     2.364039
  1007.850,     2.339199
  1007.900,     2.311821
  1007.950,     2.291893
  1008.000,     2.274188
  1008.050,     2.259814
  1008.100,     2.249494
  1008.150,     2.242164
  1008.200,     2.237834
  1008.250,     2.232760
  1008.300,     2.227017
  1008.350,     2.219779
  1008.400,     2.211952
  1008.450,     2.202514
  1008.500,     2.189384
  1008.550,     2.181398
  1008.600,     2.167402
  1008.650,     2.161058
  1008.700,     2.153279
  1008.750,     2.151432
  1008.800,     2.150089
  1008.850,     2.152313
  1008.900,     2.154740
  1008.950,     2.158965
  1009.000,     2.163936
  1009.050,     2.167265
  1009.100,     2.168846
  1009.150,     2.168283
  1009.200,     2.168916
  1009.250,     2.171633
  1009.300,     2.169235
  1009.350,     2.170777
  1009.400,     2.175260
  1009.450,     2.176806
  1009.500,     2.183803
  1009.550,     2.192582
  1009.600,     2.202534
  1009.650,     2.214965
  1009.700,     2.230663
  1009.750,     2.244671
  1009.800,     2.261169
  1009.850,     2.283703
  1009.900,     2.298263
  1009.950,     2.317335
  1010.000,     2.333094
  1010.050,     2.349924
  1010.100,     2.361144
  1010.150,     2.370819
  1010.200,     2.378053
  1010.250,     2.380376
  1010.300,     2.377762
  1010.350,     2.374311
  1010.400,     2.363420
  1010.450,     2.349842
  1010.500,     2.333750
  1010.550,     2.314442
  1010.600,     2.290737
  1010.650,     2.266955
  1010.700,     2.239738
  1010.750,     2.206493
  1010.800,     2.175555
  1010.850,     2.140006
  1010.900,     2.100193
  1010.950,     2.064242
  1011.000,     2.022839
  1011.050,     1.984691
  1011.100,     1.946388
  1011.150,     1.909857
  1011.200,     1.875853
  1011.250,     1.841742
  1011.300,     1.810073
  1011.350,     1.778904
  1011.400,     1.753851
  1011.450,     1.727551
  1011.500,     1.703716
  1011.550,     1.681031
  1011.600,     1.662028
  1011.650,     1.647931
  1011.700,     1.636824
  1011.750,     1.628112
  1011.800,     1.620468
  1011.850,     1.621495
  1011.900,     1.627703
  1011.950,     1.639141
  1012.000,     1.654229
  1012.050,     1.673477
  1012.100,     1.696164
  1012.150,     1.721094
  1012.200,     1.746372
  1012.250,     1.773964
  1012.300,     1.799639
  1012.350,     1.828341
  1012.400,     1.852533
  1012.450,     1.878952
  1012.500,     1.904497
  1012.550,     1.929228
  1012.600,     1.957248
  1012.650,     1.987127
  1012.700,     2.018599
  1012.750,     2.050013
  1012.800,     2.087068
  1012.850,     2.124945
  1012.900,     2.163951
  1012.950,     2.207882
  1013.000,     2.252761
  1013.050,     2.298549
  1013.100,     2.350401
  1013.150,     2.399124
  1013.200,     2.447441
  1013.250,     2.501991
  1013.300,     2.552331
  1013.350,     2.601435
  1013.400,     2.654461
  1013.450,     2.708212
  1013.500,     2.761003
  1013.550,     2.818406
  1013.600,     2.872606
  1013.650,     2.929827
  1013.700,     2.987532
  1013.750,     3.042910
  1013.800,     3.098993
  1013.850,     3.150354
  1013.900,     3.200612
  1013.950,     3.249341
  1014.000,     3.294296
  1014.050,     3.340314
  1014.100,     3.386741
  1014.150,     3.431446
  1014.200,     3.478034
  1014.250,     3.524348
  1014.300,     3.570502
  1014.350,     3.615422
  1014.400,     3.660454
  1014.450,     3.706810
  1014.500,     3.747554
  1014.550,     3.780560
  1014.600,     3.814791
  1014.650,     3.844314
  1014.700,     3.867129
  1014.750,     3.889053
  1014.800,     3.909236
  1014.850,     3.927939
  1014.900,     3.948671
  1014.950,     3.964674
  1015.000,     3.986776
  1015.050,     4.004299
  1015.100,     4.028476
  1015.150,     4.050467
  1015.200,     4.072442
  1015.250,     4.097022
  1015.300,     4.116813
  1015.350,     4.136254
  1015.400,     4.157849
  1015.450,     4.177147
  1015.500,     4.193603
  1015.550,     4.212723
  1015.600,     4.229767
  1015.650,     4.248671
  1015.700,     4.273041
  1015.750,     4.297879
  1015.800,     4.324725
  1015.850,     4.357346
  1015.900,     4.391125
  1015.950,     4.426447
  1016.000,     4.462323
  1016.050,     4.500901
  1016.100,     4.540654
  1016.150,     4.580514
  1016.200,     4.616957
  1016.250,     4.653552
  1016.300,     4.685042
  1016.350,     4.717750
  1016.400,     4.745367
  1016.450,     4.772878
  1016.500,     4.804088
  1016.550,     4.829824
  1016.600,     4.859609
  1016.650,     4.886189
  1016.700,     4.917005
  1016.750,     4.945906
  1016.800,     4.978836
  1016.850,     5.008080
  1016.900,     5.036854
  1016.950,     5.071383
  1017.000,     5.104596
  1017.050,     5.136743
  1017.100,     5.177727
  1017.150,     5.213273
  1017.200,     5.250142
  1017.250,     5.283730
  1017.300,     5.319891
  1017.350,     5.356012
  1017.400,     5.386668
  1017.450,     5.417273
  1017.500,     5.445523
  1017.550,     5.467621
  1017.600,     5.484104
  1017.650,     5.500722
  1017.700,     5.518296
  1017.750,     5.528033
  1017.800,     5.541050
  1017.850,     5.552440
  1017.900,     5.566418
  1017.950,     5.583082
  1018.000,     5.599656
  1018.050,     5.621153
  1018.100,     5.644374
  1018.150,     5.670419
  1018.200,     5.695250
  1018.250,     5.721665
  1018.300,     5.750656
  1018.350,     5.776422
  1018.400,     5.803343
  1018.450,     5.829176
  1018.500,     5.851840
  1018.550,     5.875106
  1018.600,     5.895528
  1018.650,     5.914719
  1018.700,     5.938814
  1018.750,     5.959687
  1018.800,     5.982957
  1018.850,     6.006267
  1018.900,     6.031058
  1018.950,     6.059111
  1019.000,     6.082607
  1019.050,     6.106349
  1019.100,     6.132741
  1019.150,     6.156408
  1019.200,     6.177201
  1019.250,     6.194420
  1019.300,     6.211620
  1019.350,     6.221067
  1019.400,     6.233306
  1019.450,     6.239524
  1019.500,     6.237673
  1019.550,     6.237520
  1019.600,     6.232748
  1019.650,     6.224085
  1019.700,     6.211539
  1019.750,     6.197152
  1019.800,     6.178323
  1019.850,     6.155412
  1019.900,     6.130537
  1019.950,     6.096187
  1020.000,     6.056938
  1020.050,     6.017839
  1020.100,     5.969409
  1020.150,     5.916222
  1020.200,     5.866034
  1020.250,     5.812249
  1020.300,     5.758131
  1020.350,     5.703790
  1020.400,     5.652030
  1020.450,     5.600305
  1020.500,     5.555639
  1020.550,     5.513481
  1020.600,     5.477577
  1020.650,     5.444884
  1020.700,     5.416981
  1020.750,     5.391815
  1020.800,     5.371682
  1020.850,     5.356633
  1020.900,     5.347184
  1020.950,     5.339674
  1021.000,     5.337829
  1021.050,     5.342221
  1021.100,     5.353160
  1021.150,     5.365754
  1021.200,     5.393379
  1021.250,     5.423109
  1021.300,     5.458248
  1021.350,     5.498151
  1021.400,     5.540622
  1021.450,     5.585189
  1021.500,     5.628949
  1021.550,     5.669122
  1021.600,     5.705635
  1021.650,     5.739332
  1021.700,     5.769462
  1021.750,     5.789883
  1021.800,     5.802410
  1021.850,     5.809681
  1021.900,     5.807323
  1021.950,     5.798898
  1022.000,     5.782084
  1022.050,     5.760423
  1022.100,     5.731311
  1022.150,     5.700201
  1022.200,     5.665828
  1022.250,     5.626657
  1022.300,     5.587422
  1022.350,     5.547185
  1022.400,     5.508835
  1022.450,     5.471356
  1022.500,     5.433498
  1022.550,     5.400541
  1022.600,     5.365758
  1022.650,     5.330985
  1022.700,     5.293452
  1022.750,     5.258743
  1022.800,     5.221284
  1022.850,     5.185505
  1022.900,     5.144826
  1022.950,     5.105221
  1023.000,     5.065940
  1023.050,     5.027928
  1023.100,     4.987180
  1023.150,     4.952683
  1023.200,     4.920522
  1023.250,     4.888890
  1023.300,     4.860644
  1023.350,     4.827447
  1023.400,     4.798109
  1023.450,     4.776653
  1023.500,     4.749923
  1023.550,     4.725652
  1023.600,     4.699716
  1023.650,     4.681521
  1023.700,     4.657801
  1023.750,     4.632551
  1023.800,     4.607999
  1023.850,     4.584900
  1023.900,     4.559475
  1023.950,     4.532972
  1024.000,     4.501740
  1024.050,     4.471565
  1024.100,     4.441847
  1024.150,     4.411850
  1024.200,     4.382458
  1024.250,     4.355271
  1024.300,     4.330440
  1024.350,     4.308880
  1024.400,     4.287842
  1024.450,     4.274464
  1024.500,     4.261858
  1024.550,     4.249077
  1024.600,     4.240459
  1024.650,     4.231095
  1024.700,     4.219913
  1024.750,     4.209047
  1024.800,     4.198324
  1024.850,     4.183894
  1024.900,     4.163909
  1024.950,     4.149839
  1025.000,     4.132108
  1025.050,     4.111786
  1025.100,     4.096189
  1025.150,     4.079012
  1025.200,     4.066347
  1025.250,     4.058500
  1025.300,     4.054504
  1025.350,     4.052274
  1025.400,     4.054355
  1025.450,     4.058034
  1025.500,     4.061294
  1025.550,     4.065801
  1025.600,     4.070483
  1025.650,     4.072006
  1025.700,     4.067355
  1025.750,     4.064088
  1025.800,     4.052550
  1025.850,     4.035681
  1025.900,     4.015389
  1025.950,     3.991079
  1026.000,     3.967523
  1026.050,     3.937100
  1026.100,     3.905198
  1026.150,     3.867520
  1026.200,     3.828444
  1026.250,     3.786758
  1026.300,     3.740561
  1026.350,     3.694946
  1026.400,     3.647432
  1026.450,     3.600202
  1026.500,     3.558169
  1026.550,     3.516016
  1026.600,     3.477744
  1026.650,     3.441181
  1026.700,     3.410422
  1026.750,     3.378768
  1026.800,     3.354996
  1026.850,     3.334902
  1026.900,     3.320833
  1026.950,     3.310533
  1027.000,     3.308114
  1027.050,     3.311625
  1027.100,     3.319877
  1027.150,     3.336883
  1027.200,     3.354300
  1027.250,     3.377659
  1027.300,     3.406295
  1027.350,     3.437364
  1027.400,     3.471293
  1027.450,     3.507763
  1027.500,     3.543391
  1027.550,     3.578974
  1027.600,     3.611498
  1027.650,     3.645402
  1027.700,     3.676944
  1027.750,     3.702110
  1027.800,     3.724365
  1027.850,     3.743205
  1027.900,     3.757726
  1027.950,     3.768055
  1028.000,     3.774236
  1028.050,     3.772749
  1028.100,     3.767753
  1028.150,     3.765787
  1028.200,     3.754275
  1028.250,     3.740300
  1028.300,     3.731370
  1028.350,     3.717682
  1028.400,     3.705720
  1028.450,     3.692262
  1028.500,     3.678156
  1028.550,     3.667340
  1028.600,     3.655300
  1028.650,     3.643115
  1028.700,     3.635352
  1028.750,     3.624129
  1028.800,     3.614987
  1028.850,     3.603052
  1028.900,     3.593124
  1028.950,     3.581248
  1029.000,     3.566466
  1029.050,     3.551278
  1029.100,     3.532245
  1029.150,     3.511704
  1029.200,     3.490089
  1029.250,     3.468703
  1029.300,     3.442656
  1029.350,     3.420067
  1029.400,     3.396587
  1029.450,     3.373714
  1029.500,     3.346413
  1029.550,     3.314477
  1029.600,     3.286304
  1029.650,     3.255103
  1029.700,     3.222715
  1029.750,     3.191772
  1029.800,     3.159491
  1029.850,     3.128691
  1029.900,     3.102049
  1029.950,     3.079059
  1030.000,     3.062133
  1030.050,     3.052526
  1030.100,     3.055043
  1030.150,     3.063757
  1030.200,     3.078399
  1030.250,     3.107488
  1030.300,     3.138774
  1030.350,     3.180889
  1030.400,     3.227430
  1030.450,     3.276453
  1030.500,     3.335110
  1030.550,     3.396981
  1030.600,     3.457116
  1030.650,     3.522297
  1030.700,     3.587569
  1030.750,     3.654208
  1030.800,     3.720234
  1030.850,     3.783268
  1030.900,     3.847647
  1030.950,     3.909283
  1031.000,     3.965827
  1031.050,     4.015976
  1031.100,     4.065549
  1031.150,     4.104373
  1031.200,     4.134883
  1031.250,     4.158651
  1031.300,     4.173995
  1031.350,     4.179891
  1031.400,     4.178640
  1031.450,     4.168043
  1031.500,     4.149144
  1031.550,     4.124186
  1031.600,     4.092594
  1031.650,     4.053869
  1031.700,     4.009385
  1031.750,     3.959713
  1031.800,     3.903397
  1031.850,     3.846042
  1031.900,     3.776424
  1031.950,     3.705975
  1032.000,     3.633540
  1032.050,     3.549580
  1032.100,     3.466068
  1032.150,     3.375836
  1032.200,     3.285128
  1032.250,     3.189870
  1032.300,     3.094836
  1032.350,     2.995698
  1032.400,     2.901271
  1032.450,     2.799911
  1032.500,     2.703772
  1032.550,     2.603462
  1032.600,     2.504255
  1032.650,     2.409537
  1032.700,     2.312546
  1032.750,     2.220589
  1032.800,     2.124043
  1032.850,     2.029549
  1032.900,     1.938808
  1032.950,     1.842977
  1033.000,     1.747700
  1033.050,     1.659075
  1033.100,     1.571603
  1033.150,     1.488102
  1033.200,     1.408442
  1033.250,     1.330774
  1033.300,     1.256714
  1033.350,     1.189132
  1033.400,     1.127493
  1033.450,     1.065299
  1033.500,     1.007278
  1033.550,     0.956551
  1033.600,     0.903060
  1033.650,     0.851895
  1033.700,     0.802587
  1033.750,     0.750538
  1033.800,     0.694691
  1033.850,     0.643347
  1033.900,     0.586664
  1033.950,     0.531151
  1034.000,     0.474035
  1034.050,     0.418545
  1034.100,     0.367698
  1034.150,     0.320374
  1034.200,     0.271992
  1034.250,     0.225704
  1034.300,     0.182602
  1034.350,     0.142988
  1034.400,     0.103499
  1034.450,     0.064273
  1034.500,     0.025057
  1034.550,    -0.011018
  1034.600,    -0.047060
  1034.650,    -0.084201
  1034.700,    -0.113755
  1034.750,    -0.138008
  1034.800,    -0.163232
  1034.850,    -0.178992
  1034.900,    -0.195781
  1034.950,    -0.205216
  1035.000,    -0.212642
  1035.050,    -0.217030
  1035.100,    -0.217968
  1035.150,    -0.212759
  1035.200,    -0.208978
  1035.250,    -0.199353
  1035.300,    -0.192910
  1035.350,    -0.180270
  1035.400,    -0.165937
  1035.450,    -0.150988
  1035.500,    -0.137746
  1035.550,    -0.122569
  1035.600,    -0.108212
  1035.650,    -0.092308
  1035.700,    -0.082271
  1035.750,    -0.078337
  1035.800,    -0.074074
  1035.850,    -0.073650
  1035.900,    -0.075671
  1035.950,    -0.084735
  1036.000,    -0.091804
  1036.050,    -0.101877
  1036.100,    -0.115656
  1036.150,    -0.130091
  1036.200,    -0.146727
  1036.250,    -0.164368
  1036.300,    -0.185513
  1036.350,    -0.210730
  1036.400,    -0.234884
  1036.450,    -0.260461
  1036.500,    -0.292073
  1036.550,    -0.321434
  1036.600,    -0.350726
  1036.650,    -0.378807
  1036.700,    -0.408342
  1036.750,    -0.434539
  1036.800,    -0.455793
  1036.850,    -0.475672
  1036.900,    -0.493180
  1036.950,    -0.509798
  1037.000,    -0.524173
  1037.050,    -0.534660
  1037.100,    -0.542971
  1037.150,    -0.552943
  1037.200,    -0.561435
  1037.250,    -0.563618
  1037.300,    -0.568967
  1037.350,    -0.576304
  1037.400,    -0.576760
  1037.450,    -0.582683
  1037.500,    -0.586717
  1037.550,    -0.588030
  1037.600,    -0.585531
  1037.650,    -0.580262
  1037.700,    -0.575624
  1037.750,    -0.570404
  1037.800,    -0.561114
  1037.850,    -0.550050
  1037.900,    -0.536398
  1037.950,    -0.523200
  1038.000,    -0.509863
  1038.050,    -0.489930
  1038.100,    -0.471546
  1038.150,    -0.452324
  1038.200,    -0.432095
  1038.250,    -0.409057
  1038.300,    -0.385085
  1038.350,    -0.360542
  1038.400,    -0.337924
  1038.450,    -0.313060
  1038.500,    -0.289776
  1038.550,    -0.269888
  1038.600,    -0.251596
  1038.650,    -0.237288
  1038.700,    -0.222336
  1038.750,    -0.210987
  1038.800,    -0.201645
  1038.850,    -0.191824
  1038.900,    -0.183754
  1038.950,    -0.175167
  1039.000,    -0.164765
  1039.050,    -0.154231
  1039.100,    -0.141648
  1039.150,    -0.129037
  1039.200,    -0.114756
  1039.250,    -0.097507
  1039.300,    -0.082394
  1039.350,    -0.066712
  1039.400,    -0.046040
  1039.450,    -0.026138
  1039.500,    -0.000915
  1039.550,     0.026807
  1039.600,     0.055447
  1039.650,     0.090126
  1039.700,     0.125216
  1039.750,     0.168656
  1039.800,     0.211661
  1039.850,     0.259414
  1039.900,     0.309356
